Data from FLMS055071__10__14-16-41-390.txt Node

Date: Wed Apr 28 14:16:41 CEST 2021
User: thoma
Spectrometer: FLMS05507
Trigger mode: 0
Integration Time (sec): 1,000000E-3
Scans to average: 1
Electric dark correction enabled: false
Nonlinearity correction enabled: false
Boxcar width: 0
XAxis mode: Wavelengths
Number of Pixels in Spectrum: 2048
>>>>>Begin Spectral Data<<<<<
188,96	2670,55
189,424	2670,55
189,887	2670,55
190,351	2644,81
190,815	2670,55
191,279	2626,08
191,742	2684,59
192,206	2675,23
192,669	2635,44
193,133	2602,68
193,596	2644,81
194,06	2665,87
194,523	2656,51
194,987	2677,57
195,45	2726,72
195,913	2752,47
196,376	2764,17
196,84	2787,58
197,303	2848,43
197,766	2785,24
198,229	2796,94
198,692	2850,77
199,155	2895,24
199,618	2892,9
200,081	2953,76
200,543	3035,67
201,006	2995,89
201,469	2995,89
201,932	2965,46
202,394	2995,89
202,857	3009,93
203,32	2998,23
203,782	2993,55
204,245	3077,8
204,707	3054,4
205,169	3070,78
205,632	3033,33
206,094	3073,12
206,556	3049,72
207,019	3080,14
207,481	3030,99
207,943	3091,85
208,405	3084,83
208,867	3073,12
209,329	3045,04
209,791	3101,21
210,253	3103,55
210,715	3112,91
211,177	3066,1
211,639	3042,7
212,1	3042,7
212,562	3047,38
213,024	3042,7
213,485	3089,51
213,947	3082,49
214,408	3124,62
214,87	3047,38
215,331	3082,49
215,793	3007,59
216,254	3103,55
216,715	3045,04
217,177	3028,65
217,638	3080,14
218,099	3005,25
218,56	3033,33
219,021	3023,97
219,482	3038,02
219,944	3091,85
220,404	3035,67
220,865	3073,12
221,326	3054,4
221,787	3014,61
222,248	3070,78
222,709	2991,2
223,169	3019,29
223,63	3019,29
224,091	3045,04
224,551	3138,66
225,012	3089,51
225,472	3084,83
225,933	2995,89
226,393	3009,93
226,854	2991,2
227,314	3007,59
227,774	3023,97
228,234	3040,36
228,695	3023,97
229,155	3047,38
229,615	3023,97
230,075	3096,53
230,535	3059,08
230,995	3016,95
231,455	3075,46
231,915	3012,27
232,375	3021,63
232,834	3063,76
233,294	3023,97
233,754	3052,06
234,214	3091,85
234,673	3035,67
235,133	3005,25
235,592	3045,04
236,052	3096,53
236,511	3061,42
236,971	3038,02
237,43	3096,53
237,889	3089,51
238,349	3087,17
238,808	2993,55
239,267	2995,89
239,726	2998,23
240,185	3073,12
240,644	3030,99
241,103	3059,08
241,562	3030,99
242,021	3047,38
242,48	3052,06
242,939	2998,23
243,398	3026,31
243,857	3119,93
244,315	3038,02
244,774	3068,44
245,233	2991,2
245,691	3112,91
246,15	3023,97
246,608	3075,46
247,067	3166,74
247,525	3112,91
247,983	3038,02
248,442	3059,08
248,9	3047,38
249,358	3038,02
249,816	3126,96
250,274	3098,87
250,733	3045,04
251,191	3014,61
251,649	3033,33
252,107	3021,63
252,564	3007,59
253,022	3014,61
253,48	3026,31
253,938	3002,91
254,396	3119,93
254,853	3061,42
255,311	3091,85
255,769	3066,1
256,226	3063,76
256,684	3075,46
257,141	2960,78
257,599	3033,33
258,056	3131,64
258,513	3070,78
258,971	3009,93
259,428	3084,83
259,885	3026,31
260,342	3070,78
260,799	3026,31
261,256	3056,74
261,714	3084,83
262,171	3136,32
262,627	3049,72
263,084	3084,83
263,541	3080,14
263,998	3014,61
264,455	3030,99
264,912	3096,53
265,368	3061,42
265,825	3045,04
266,281	3049,72
266,738	3054,4
267,194	3016,95
267,651	3021,63
268,107	3075,46
268,564	3030,99
269,02	3005,25
269,476	3066,1
269,933	3040,36
270,389	3061,42
270,845	3073,12
271,301	3045,04
271,757	2977,16
272,213	3087,17
272,669	3030,99
273,125	3122,27
273,581	3028,65
274,037	3054,4
274,492	3068,44
274,948	3016,95
275,404	3038,02
275,86	3155,04
276,315	3122,27
276,771	3059,08
277,226	3038,02
277,682	3066,1
278,137	3026,31
278,593	3033,33
279,048	3026,31
279,503	3000,57
279,958	3066,1
280,414	3047,38
280,869	3026,31
281,324	3098,87
281,779	3141
282,234	3164,4
282,689	3042,7
283,144	3070,78
283,599	3077,8
284,054	3108,23
284,508	3124,62
284,963	3091,85
285,418	3063,76
285,873	3091,85
286,327	3138,66
286,782	3030,99
287,236	3155,04
287,691	3019,29
288,145	3023,97
288,6	3126,96
289,054	3091,85
289,508	3082,49
289,963	3098,87
290,417	3110,57
290,871	3091,85
291,325	3042,7
291,779	3047,38
292,233	3049,72
292,687	3028,65
293,141	3052,06
293,595	3082,49
294,049	3038,02
294,503	3082,49
294,957	3042,7
295,41	3105,89
295,864	3033,33
296,318	3112,91
296,771	3098,87
297,225	3115,25
297,678	3091,85
298,132	3073,12
298,585	3122,27
299,039	3073,12
299,492	3133,98
299,945	3028,65
300,398	3131,64
300,852	3141
301,305	3047,38
301,758	3054,4
302,211	3070,78
302,664	3080,14
303,117	3061,42
303,57	3080,14
304,023	3084,83
304,476	3124,62
304,928	3105,89
305,381	3162,06
305,834	3162,06
306,286	3136,32
306,739	3166,74
307,192	3129,3
307,644	3073,12
308,097	3199,51
308,549	3190,15
309,001	3169,09
309,454	3201,85
309,906	3215,9
310,358	3241,64
310,81	3218,24
311,263	3253,34
311,715	3325,9
312,167	3258,03
312,619	3370,37
313,071	3283,77
313,523	3393,78
313,975	3417,18
314,426	3353,99
314,878	3419,52
315,33	3414,84
315,782	3393,78
316,233	3494,42
316,685	3482,72
317,136	3510,8
317,588	3517,83
318,039	3604,42
318,491	3557,61
318,942	3597,4
319,393	3569,32
319,845	3705,07
320,296	3700,39
320,747	3756,56
321,198	3805,71
321,649	3786,99
322,101	3812,73
322,552	3810,39
323,003	3744,86
323,453	3894,65
323,904	3852,52
324,355	3875,93
324,806	3925,08
325,257	4018,7
325,707	4205,94
326,158	4124,02
326,609	4262,12
327,059	4306,59
327,51	4250,41
327,96	4255,09
328,411	4311,27
328,861	4334,67
329,311	4360,42
329,762	4421,27
330,212	4423,61
330,662	4479,79
331,112	4322,97
331,562	4383,82
332,012	4423,61
332,462	4390,84
332,912	4400,21
333,362	4407,23
333,812	4400,21
334,262	4404,89
334,712	4510,21
335,161	4430,63
335,611	4519,57
336,061	4477,44
336,51	4432,97
336,96	4266,8
337,409	4344,03
337,859	4365,1
338,308	4475,1
338,758	4451,7
339,207	4585,11
339,656	4524,26
340,105	4606,17
340,555	4585,11
341,004	4634,26
341,453	4664,69
341,902	4732,56
342,351	4692,77
342,8	4678,73
343,249	4641,28
343,698	4582,77
344,146	4634,26
344,595	4582,77
345,044	4585,11
345,493	4566,39
345,941	4690,43
346,39	4823,84
346,838	4751,29
347,287	4744,27
347,735	4870,65
348,184	4805,12
348,632	4727,88
349,08	4755,97
349,529	4762,99
349,977	4793,42
350,425	4854,27
350,873	4997,04
351,321	5053,22
351,769	4968,96
352,217	5090,67
352,665	4990,02
353,113	5109,39
353,561	5011,09
354,009	5123,43
354,456	5287,27
354,904	5259,18
355,352	5348,12
355,799	5252,16
356,247	5252,16
356,694	5212,37
357,142	5048,54
357,589	4919,81
358,037	4870,65
358,484	4805,12
358,931	4940,87
359,379	5046,19
359,826	5247,48
360,273	5327,06
360,72	5256,84
361,167	5348,12
361,614	5296,63
362,061	5350,46
362,508	5507,28
362,955	5575,16
363,402	5561,11
363,848	5708,57
364,295	5575,16
364,742	5757,72
365,188	5856,02
365,635	5928,58
366,082	6115,82
366,528	6057,31
366,975	6214,12
367,421	6300,72
367,867	6338,17
368,314	6258,59
368,76	6101,78
369,206	6410,73
369,652	6406,05
370,098	6406,05
370,545	6497,33
370,991	6480,94
371,437	6377,96
371,882	6408,39
372,328	6258,59
372,774	6064,33
373,22	5870,06
373,666	6029,22
374,111	5874,74
374,557	5781,12
375,003	5942,62
375,448	6181,35
375,894	6186,04
376,339	6310,08
376,785	6403,71
377,23	6672,87
377,675	6951,39
378,121	7103,53
378,566	7089,48
379,011	7014,59
379,456	6902,24
379,901	6834,36
380,346	6846,07
380,791	6792,23
381,236	6829,68
381,681	6534,78
382,126	6387,32
382,571	6057,31
383,016	5879,43
383,461	5795,17
383,905	5811,55
384,35	6047,94
384,794	6143,91
385,239	6377,96
385,683	6438,81
386,128	6518,39
386,572	6476,26
387,017	6473,92
387,461	6525,41
387,905	6462,22
388,349	6693,93
388,794	6612,01
389,238	6899,9
389,682	6963,09
390,126	7307,15
390,57	7417,16
391,014	7620,78
391,457	7730,79
391,901	7529,5
392,345	7171,4
392,789	6736,06
393,233	6448,18
393,676	6040,92
394,12	6258,59
394,563	6569,88
395,007	7096,5
395,45	7323,54
395,894	7241,62
396,337	6937,35
396,78	6682,23
397,224	6663,51
397,667	6984,16
398,11	7545,89
398,553	8039,74
398,996	8461,04
399,439	8887,01
399,882	9149,15
400,325	9453,42
400,768	9664,07
401,211	9631,3
401,654	9947,28
402,096	10162,61
402,539	10118,14
402,982	10045,58
403,424	9902,81
403,867	10022,17
404,309	10003,45
404,752	9958,98
405,194	9944,94
405,637	10071,33
406,079	9863,02
406,521	9886,42
406,963	9884,08
407,406	9853,66
407,848	10038,56
408,29	10200,05
408,732	10441,13
409,174	10455,17
409,616	9970,68
410,058	10209,42
410,499	10003,45
410,941	10120,48
411,383	10623,69
411,825	10740,72
412,266	10949,03
412,708	10700,93
413,15	10895,19
413,591	10604,97
414,033	10934,98
414,474	10930,3
414,915	10609,65
415,357	11316,49
415,798	11082,44
416,239	11035,63
416,68	11014,56
417,121	10977,11
417,563	10707,95
418,004	10754,76
418,445	11030,94
418,885	10972,43
419,326	10560,5
419,767	10759,44
420,208	10839,02
420,649	10902,22
421,089	11269,68
421,53	11414,79
421,971	11337,56
422,411	11040,31
422,852	11056,69
423,292	11101,16
423,733	11023,92
424,173	11101,16
424,613	11234,57
425,054	11274,36
425,494	11054,35
425,934	11262,66
426,374	11232,23
426,814	11185,42
427,254	10892,85
427,694	10670,5
428,134	10881,15
428,574	10871,79
429,014	10665,82
429,454	10490,28
429,893	9916,85
430,333	9540,02
430,773	9708,54
431,212	9830,25
431,652	9942,6
432,091	10813,27
432,531	11073,07
432,97	11096,48
433,41	11030,94
433,849	11133,93
434,288	11087,12
434,727	11330,53
435,167	11557,57
435,606	11716,72
436,045	11843,11
436,484	12053,76
436,923	12329,94
437,362	11978,86
437,801	11740,13
438,239	11939,07
438,678	11889,92
439,117	11733,11
439,556	12053,76
439,994	12102,91
440,433	11983,54
440,871	12402,5
441,31	12718,47
441,748	12933,8
442,187	13062,53
442,625	13385,52
443,063	13217,01
443,502	13004,02
443,94	13645,32
444,378	13579,79
444,816	13680,43
445,254	13605,53
445,692	13254,45
446,13	13439,36
446,568	13547,02
447,006	13659,37
447,444	13369,14
447,881	14068,96
448,319	14455,15
448,757	13928,53
449,194	14008,11
449,632	14494,94
450,07	14396,64
450,507	14883,47
450,944	14855,38
451,382	14839
451,819	14923,26
452,256	14677,5
452,694	14508,98
453,131	14864,74
453,568	14630,69
454,005	14312,38
454,442	14565,15
454,879	14569,83
455,316	14724,31
455,753	14438,76
456,19	15192,42
456,627	14785,16
457,063	15119,86
457,5	15187,74
457,937	15087,09
458,373	14803,89
458,81	14829,63
459,246	15220,5
459,683	14637,71
460,119	15353,91
460,556	15138,58
460,992	15346,89
461,428	15384,34
461,864	16070,12
462,301	16123,95
462,737	16152,04
463,173	15779,89
463,609	15817,34
464,045	15976,5
464,481	16093,52
464,917	16023,31
465,352	15925
465,788	16074,8
466,224	16159,06
466,66	16147,36
467,095	16056,07
467,531	15992,88
467,966	16147,36
468,402	16381,41
468,837	16915,05
469,273	16872,92
469,708	16772,28
470,143	16741,85
470,578	17163,15
471,014	16746,53
471,449	17348,05
471,884	17661,68
472,319	18139,15
472,754	17792,75
473,189	17743,6
473,624	18258,52
474,059	18518,32
474,493	18878,76
474,928	19370,27
475,363	19524,75
475,797	19594,97
476,232	19756,46
476,667	19955,41
477,101	19901,58
477,536	20835,45
477,97	20795,66
478,404	21270,79
478,839	21214,62
479,273	21755,28
479,707	21673,36
480,141	22277,22
480,575	22766,39
481,009	22476,16
481,444	22742,99
481,877	22869,37
482,311	23377,27
482,745	23520,04
483,179	23669,84
483,613	23133,85
484,047	23857,08
484,48	23711,97
484,914	23498,98
485,347	22740,65
485,781	22157,85
486,214	21771,66
486,648	21844,22
487,081	22022,1
487,515	22499,57
487,948	22686,81
488,381	22852,99
488,814	23695,58
489,247	23990,49
489,68	24500,73
490,113	24692,65
490,546	25233,32
490,979	24924,36
491,412	25029,69
491,845	24493,71
492,278	24851,81
492,711	24603,71
493,143	24795,64
493,576	25207,57
494,009	25249,7
494,441	25731,85
494,874	25949,52
495,306	25881,64
495,738	25830,15
496,171	26024,42
496,603	25933,14
497,035	26534,65
497,467	26181,23
497,9	26239,75
498,332	26342,73
498,764	26075,91
499,196	26265,49
499,628	25596,1
500,06	25645,25
500,491	25462,69
500,923	25385,45
501,355	25301,19
501,787	25130,33
502,218	25249,7
502,65	25673,34
503,081	25553,97
503,513	25638,23
503,944	25638,23
504,376	25799,73
504,807	25942,5
505,238	26438,69
505,67	26621,25
506,101	26672,74
506,532	26969,99
506,963	26754,66
507,394	26375,5
507,825	26298,26
508,256	26740,62
508,687	26398,9
509,118	26834,24
509,549	27267,24
509,979	26679,77
510,41	27094,04
510,841	27255,54
511,271	26785,09
511,702	27374,91
512,132	27274,26
512,563	26881,05
512,993	26569,76
513,424	26572,1
513,854	26483,16
514,284	26316,98
514,714	26485,5
515,145	26221,02
515,575	26396,56
516,005	25813,77
516,435	25369,07
516,865	24788,61
517,295	24512,43
517,724	24210,5
518,154	24388,38
518,584	24694,99
519,014	24315,83
519,443	25366,73
519,873	25462,69
520,303	26085,27
520,732	26281,88
521,161	26171,87
521,591	26602,53
522,02	26529,97
522,45	26293,58
522,879	26115,7
523,308	26448,05
523,737	26499,55
524,166	26492,52
524,595	26845,94
525,024	26513,59
525,453	26380,18
525,882	26106,34
526,311	25781
526,74	25460,35
527,169	25092,88
527,597	25364,39
528,026	25614,82
528,455	25874,62
528,883	26045,48
529,312	26593,17
529,74	26443,37
530,168	26647
530,597	26754,66
531,025	26515,93
531,453	26541,67
531,882	26817,86
532,31	26209,32
532,738	26066,55
533,166	25788,02
533,594	25762,28
534,022	25905,05
534,45	26288,9
534,878	26368,48
535,305	26087,61
535,733	26422,31
536,161	26314,64
536,588	26263,15
537,016	25886,32
537,444	25830,15
537,871	26214
538,299	25874,62
538,726	25914,41
539,153	26155,49
539,581	25453,33
540,008	25238
540,435	25326,94
540,862	25163,1
541,289	25247,36
541,716	25092,88
542,143	25032,03
542,57	25057,78
542,997	25247,36
543,424	25621,84
543,851	25305,87
544,277	25490,77
544,704	25624,18
545,131	25275,45
545,557	25696,74
545,984	25729,51
546,41	25706,1
546,837	25907,39
547,263	25659,29
547,69	25645,25
548,116	25291,83
548,542	25383,11
548,968	25188,85
549,394	25458,01
549,82	25446,3
550,246	25404,17
550,672	25207,57
551,098	25450,99
551,524	25310,55
551,95	25518,86
552,376	25146,72
552,802	25338,64
553,227	25034,37
553,653	25404,17
554,078	25195,87
554,504	25280,13
554,929	25235,66
555,355	25425,24
555,78	25179,48
556,206	24959,47
556,631	24847,13
557,056	24912,66
557,481	24727,76
557,906	24772,23
558,331	24147,31
558,756	23950,7
559,181	24067,73
559,606	23812,61
560,031	23857,08
560,456	24041,98
560,881	24037,3
561,305	24451,58
561,73	24173,05
562,155	23971,77
562,579	24072,41
563,004	24004,53
563,428	23875,8
563,853	24498,39
564,277	24159,01
564,701	24191,78
565,126	23978,79
565,55	23779,84
565,974	23988,15
566,398	24210,5
566,822	23796,23
567,246	23915,59
567,67	23824,31
568,094	23915,59
568,518	23782,18
568,941	23969,43
569,365	23934,32
569,789	24484,34
570,213	23747,08
570,636	23695,58
571,06	23606,64
571,483	23850,06
571,907	23733,03
572,33	24233,91
572,753	24315,83
573,177	24247,95
573,6	24369,66
574,023	23927,3
574,446	23873,46
574,869	23714,31
575,292	23599,62
575,715	23094,07
576,138	23388,97
576,561	23201,73
576,984	23061,3
577,407	22691,49
577,829	22714,9
578,252	22309,99
578,675	22267,86
579,097	22417,65
579,52	22537,02
579,942	22609,57
580,364	22424,67
580,787	22352,12
581,209	22286,58
581,631	22324,03
582,054	22274,88
582,476	22436,38
582,898	22478,5
583,32	22478,5
583,742	22277,22
584,164	21977,63
584,586	22099,34
585,008	21619,53
585,429	21699,11
585,851	21504,84
586,273	21486,12
586,694	21411,22
587,116	21659,32
587,538	21502,5
587,959	21408,88
588,38	21039,08
588,802	20678,63
589,223	20250,31
589,644	19896,89
590,066	20084,14
590,487	20334,57
590,908	20449,26
591,329	20805,02
591,75	21116,31
592,171	21074,18
592,592	21053,12
593,013	21575,06
593,434	21729,53
593,854	21167,81
594,275	21619,53
594,696	21521,23
595,116	21926,14
595,537	22017,42
595,957	21937,84
596,378	21757,62
596,798	21853,58
597,218	21891,03
597,639	21994,01
598,059	22286,58
598,479	21975,29
598,899	21734,21
599,319	22001,04
599,739	21584,42
600,159	21818,47
600,579	21369,09
600,999	21373,77
601,419	21231
601,839	21261,43
602,259	21425,26
602,678	21032,05
603,098	21179,51
603,517	21113,97
603,937	20861,19
604,356	21238,02
604,776	21158,44
605,195	20933,75
605,614	20779,28
606,034	20699,7
606,453	20610,76
606,872	20669,27
607,291	20477,35
607,71	20152,01
608,129	20018,6
608,548	19688,59
608,967	19953,07
609,386	19421,77
609,805	19108,13
610,223	19445,17
610,642	19030,9
611,061	19070,68
611,479	19061,32
611,898	18740,67
612,316	18918,55
612,735	18614,28
613,153	18586,19
613,571	18305,33
613,99	18366,18
614,408	18057,23
614,826	17905,1
615,244	18017,44
615,662	17881,69
616,08	17776,37
616,498	17195,92
616,916	17343,37
617,334	17816,16
617,752	17617,21
618,169	17603,17
618,587	17509,55
619,005	17689,77
619,422	17729,56
619,84	17542,32
620,257	17334,01
620,675	17493,16
621,092	17343,37
621,509	17406,56
621,927	17317,62
622,344	17216,98
622,761	16992,29
623,178	17001,65
623,595	16570,99
624,012	16610,78
624,429	16531,2
624,846	16563,97
625,263	16175,44
625,68	16315,87
626,097	16336,94
626,513	16236,3
626,93	16276,09
627,346	15983,52
627,763	16166,08
628,179	15894,58
628,596	15981,18
629,012	15859,47
629,429	15761,17
629,845	15594,99
630,261	15557,54
630,677	15580,95
631,093	15492,01
631,509	15634,78
631,925	15314,13
632,341	15384,34
632,757	15573,92
633,173	15510,73
633,589	15534,14
634,005	15407,75
634,42	15719,04
634,836	15358,6
635,252	15473,28
635,667	15382
636,083	15314,13
636,498	15332,85
636,913	15335,19
637,329	15211,14
637,744	15557,54
638,159	15281,36
638,574	15239,23
638,99	15449,88
639,405	15178,37
639,82	15337,53
640,235	15096,46
640,65	14972,41
641,064	14895,17
641,479	14848,36
641,894	14736,01
642,309	14787,5
642,723	14927,94
643,138	14705,59
643,552	14747,72
643,967	14813,25
644,381	14750,06
644,796	14544,09
645,21	14443,45
645,624	14562,81
646,038	14310,04
646,453	14347,48
646,867	14300,67
647,281	14340,46
647,695	14403,66
648,109	14211,73
648,523	14197,69
648,936	13893,42
649,35	13951,93
649,764	14132,15
650,178	14106,41
650,591	13987,04
651,005	14274,93
651,418	14033,85
651,832	13818,52
652,245	13858,31
652,659	14008,11
653,072	13820,86
653,485	13853,63
653,898	13933,21
654,312	13715,54
654,725	13401,91
655,138	13158,49
655,551	12823,8
655,964	12559,31
656,377	12327,6
656,789	12493,78
657,202	12751,24
657,615	12908,05
658,028	12526,55
658,44	13001,68
658,853	13074,23
659,265	13249,77
659,678	13198,28
660,09	13329,35
660,503	13408,93
660,915	13420,63
661,327	13397,23
661,739	13282,54
662,152	13179,56
662,564	13181,9
662,976	13252,11
663,388	13160,83
663,8	13039,12
664,211	13137,43
664,623	13128,06
665,035	12877,63
665,447	13001,68
665,858	12833,16
666,27	12901,03
666,682	12727,83
667,093	12704,43
667,505	12575,7
667,916	12645,91
668,327	12449,31
668,739	12503,14
669,15	12580,38
669,561	12671,66
669,972	12411,86
670,383	12351,01
670,794	12526,55
671,205	12149,72
671,616	12362,71
672,027	12056,1
672,438	12166,1
672,849	12257,39
673,259	11929,71
673,67	12198,87
674,08	11971,84
674,491	11983,54
674,901	11927,37
675,312	11908,65
675,722	11737,79
676,133	11873,54
676,543	11803,32
676,953	11700,34
677,363	11555,22
677,773	11367,98
678,183	11566,93
678,593	11382,03
679,003	11260,32
679,413	11506,07
679,823	11459,26
680,233	11332,87
680,643	11143,29
681,052	11199,46
681,462	10932,64
681,872	11180,74
682,281	11009,88
