Data from FLMS055071__3__14-15-59-415.txt Node

Date: Wed Apr 28 14:15:59 CEST 2021
User: thoma
Spectrometer: FLMS05507
Trigger mode: 0
Integration Time (sec): 1,000000E-3
Scans to average: 1
Electric dark correction enabled: false
Nonlinearity correction enabled: false
Boxcar width: 0
XAxis mode: Wavelengths
Number of Pixels in Spectrum: 2048
>>>>>Begin Spectral Data<<<<<
188,96	2628,42
189,424	2628,42
189,887	2628,42
190,351	2675,23
190,815	2640,12
191,279	2637,78
191,742	2665,87
192,206	2626,08
192,669	2693,96
193,133	2670,55
193,596	2656,51
194,06	2651,83
194,523	2682,25
194,987	2679,91
195,45	2705,66
195,913	2717,36
196,376	2696,3
196,84	2789,92
197,303	2752,47
197,766	2829,71
198,229	2822,69
198,692	2857,79
199,155	2867,16
199,618	2867,16
200,081	2963,12
200,543	3038,02
201,006	2981,84
201,469	2986,52
201,932	3000,57
202,394	3042,7
202,857	3038,02
203,32	3098,87
203,782	3040,36
204,245	3033,33
204,707	3073,12
205,169	3070,78
205,632	3021,63
206,094	3082,49
206,556	3021,63
207,019	3094,19
207,481	3077,8
207,943	3105,89
208,405	3136,32
208,867	3105,89
209,329	3103,55
209,791	3026,31
210,253	3166,74
210,715	3091,85
211,177	3110,57
211,639	3033,33
212,1	3112,91
212,562	3070,78
213,024	3080,14
213,485	3089,51
213,947	3119,93
214,408	3098,87
214,87	3030,99
215,331	3101,21
215,793	3063,76
216,254	3075,46
216,715	3063,76
217,177	3115,25
217,638	3145,68
218,099	3094,19
218,56	3070,78
219,021	2981,84
219,482	3115,25
219,944	3077,8
220,404	3126,96
220,865	3073,12
221,326	3028,65
221,787	2984,18
222,248	3063,76
222,709	3002,91
223,169	3009,93
223,63	3117,59
224,091	3049,72
224,551	3000,57
225,012	3045,04
225,472	3066,1
225,933	3021,63
226,393	3049,72
226,854	3094,19
227,314	3061,42
227,774	3052,06
228,234	3063,76
228,695	3063,76
229,155	3108,23
229,615	3040,36
230,075	3101,21
230,535	3033,33
230,995	3042,7
231,455	3012,27
231,915	3073,12
232,375	3056,74
232,834	3068,44
233,294	3049,72
233,754	3077,8
234,214	3159,72
234,673	3019,29
235,133	3068,44
235,592	3087,17
236,052	3059,08
236,511	2977,16
236,971	3131,64
237,43	3101,21
237,889	3063,76
238,349	3091,85
238,808	3133,98
239,267	3075,46
239,726	3061,42
240,185	3075,46
240,644	3009,93
241,103	3035,67
241,562	3098,87
242,021	3049,72
242,48	3052,06
242,939	3094,19
243,398	3052,06
243,857	3049,72
244,315	3012,27
244,774	3030,99
245,233	3084,83
245,691	3096,53
246,15	3040,36
246,608	3091,85
247,067	3040,36
247,525	3108,23
247,983	3068,44
248,442	3045,04
248,9	3080,14
249,358	3091,85
249,816	3030,99
250,274	3096,53
250,733	3094,19
251,191	3040,36
251,649	3061,42
252,107	3049,72
252,564	3115,25
253,022	3070,78
253,48	3119,93
253,938	3082,49
254,396	3077,8
254,853	3054,4
255,311	3077,8
255,769	3066,1
256,226	3056,74
256,684	3016,95
257,141	3150,36
257,599	3119,93
258,056	3052,06
258,513	3117,59
258,971	3038,02
259,428	3023,97
259,885	3155,04
260,342	3129,3
260,799	3119,93
261,256	3103,55
261,714	3101,21
262,171	3077,8
262,627	3122,27
263,084	3056,74
263,541	3080,14
263,998	3070,78
264,455	3119,93
264,912	3169,09
265,368	3098,87
265,825	3096,53
266,281	3035,67
266,738	3052,06
267,194	3056,74
267,651	3063,76
268,107	3077,8
268,564	3108,23
269,02	3045,04
269,476	3084,83
269,933	3056,74
270,389	3101,21
270,845	3012,27
271,301	3126,96
271,757	3112,91
272,213	3098,87
272,669	3103,55
273,125	3119,93
273,581	3091,85
274,037	3155,04
274,492	3063,76
274,948	3098,87
275,404	3056,74
275,86	3070,78
276,315	3045,04
276,771	3047,38
277,226	3124,62
277,682	3169,09
278,137	3110,57
278,593	3089,51
279,048	3094,19
279,503	3059,08
279,958	3089,51
280,414	3066,1
280,869	3068,44
281,324	3033,33
281,779	3026,31
282,234	3073,12
282,689	3080,14
283,144	3073,12
283,599	3077,8
284,054	3061,42
284,508	3131,64
284,963	3049,72
285,418	3080,14
285,873	3115,25
286,327	3105,89
286,782	3047,38
287,236	3091,85
287,691	3082,49
288,145	3119,93
288,6	3073,12
289,054	3112,91
289,508	3033,33
289,963	3122,27
290,417	3047,38
290,871	3122,27
291,325	3066,1
291,779	3101,21
292,233	3080,14
292,687	3141
293,141	3066,1
293,595	3052,06
294,049	3131,64
294,503	3026,31
294,957	3019,29
295,41	3169,09
295,864	3096,53
296,318	3112,91
296,771	3126,96
297,225	3108,23
297,678	3098,87
298,132	3035,67
298,585	3112,91
299,039	3045,04
299,492	3040,36
299,945	3091,85
300,398	3112,91
300,852	3098,87
301,305	3131,64
301,758	3101,21
302,211	3145,68
302,664	3084,83
303,117	3063,76
303,57	3075,46
304,023	3159,72
304,476	3063,76
304,928	3108,23
305,381	3075,46
305,834	3155,04
306,286	3131,64
306,739	3070,78
307,192	3157,38
307,644	3173,77
308,097	3265,05
308,549	3183,13
309,001	3208,87
309,454	3211,21
309,906	3288,45
310,358	3279,09
310,81	3241,64
311,263	3382,07
311,715	3475,7
312,167	3440,59
312,619	3478,04
313,071	3459,31
313,523	3520,17
313,975	3534,21
314,426	3487,4
314,878	3623,15
315,33	3552,93
315,782	3639,53
316,233	3585,7
316,685	3604,42
317,136	3676,98
317,588	3735,49
318,039	3737,84
318,491	3901,67
318,942	3896,99
319,393	3971,89
319,845	3985,93
320,296	3997,63
320,747	4070,19
321,198	4105,3
321,649	4058,49
322,101	4074,87
322,552	4234,03
323,003	4168,49
323,453	4128,7
323,904	4180,2
324,355	4311,27
324,806	4367,44
325,257	4432,97
325,707	4622,56
326,158	4648,3
326,609	4755,97
327,059	4816,82
327,51	4816,82
327,96	4809,8
328,411	4863,63
328,861	4856,61
329,311	4873
329,762	4835,55
330,212	5015,77
330,662	5036,83
331,112	4931,51
331,562	4858,95
332,012	4849,59
332,462	4983
332,912	5039,17
333,362	4959,6
333,812	4973,64
334,262	4983
334,712	4943,21
335,161	5032,15
335,611	5118,75
336,061	4975,98
336,51	5036,83
336,96	5015,77
337,409	4947,89
337,859	5011,09
338,308	5088,32
338,758	4978,32
339,207	5231,1
339,656	5191,31
340,105	5406,64
340,555	5392,59
341,004	5296,63
341,453	5357,49
341,902	5284,93
342,351	5458,13
342,8	5511,96
343,249	5423,02
343,698	5453,45
344,146	5331,74
344,595	5320,04
345,044	5263,86
345,493	5401,96
345,941	5495,58
346,39	5383,23
346,838	5416
347,287	5518,98
347,735	5483,88
348,184	5511,96
348,632	5493,24
349,08	5607,92
349,529	5612,6
349,977	5596,22
350,425	5666,44
350,873	5755,38
351,321	6040,92
351,769	5944,96
352,217	5966,03
352,665	5832,61
353,113	5937,94
353,561	5973,05
354,009	6101,78
354,456	6193,06
354,904	6415,41
355,352	6394,34
355,799	6335,83
356,247	6214,12
356,694	6085,39
357,142	6010,5
357,589	5863,04
358,037	5736,65
358,484	5839,64
358,931	5741,33
359,379	6026,88
359,826	6230,51
360,273	6354,55
360,72	6438,81
361,167	6403,71
361,614	6335,83
362,061	6647,12
362,508	6494,99
362,955	6654,14
363,402	6644,78
363,848	6612,01
364,295	6817,98
364,742	6832,02
365,188	7005,22
365,635	7215,87
366,082	7555,25
366,528	7793,98
366,975	7585,68
367,421	7789,3
367,867	7791,64
368,314	7688,66
368,76	7569,29
369,206	7793,98
369,652	8039,74
370,098	7920,37
370,545	7999,95
370,991	7976,55
371,437	7896,97
371,882	7857,18
372,328	7791,64
372,774	7634,83
373,22	7473,33
373,666	7414,82
374,111	7265,02
374,557	7119,91
375,003	7316,51
375,448	7377,37
375,894	7744,83
376,339	7810,37
376,785	7892,29
377,23	8383,8
377,675	8709,13
378,121	8870,63
378,566	8940,85
379,011	8896,38
379,456	8491,46
379,901	8510,19
380,346	8571,04
380,791	8624,87
381,236	8500,83
381,681	8381,46
382,126	7889,95
382,571	7597,38
383,016	7222,89
383,461	7028,63
383,905	7143,31
384,35	7248,64
384,794	7396,09
385,239	7906,33
385,683	8109,96
386,128	8035,06
386,572	8112,3
387,017	8222,3
387,461	8102,93
387,905	8294,86
388,349	8248,05
388,794	8299,54
389,238	8519,55
389,682	8814,46
390,126	9205,33
390,57	9462,79
391,014	9806,84
391,457	9879,4
391,901	9745,99
392,345	9221,71
392,789	8437,63
393,233	7831,43
393,676	7368,01
394,12	7454,61
394,563	8119,32
395,007	8959,57
395,45	9226,39
395,894	9078,94
396,337	8805,1
396,78	8271,45
397,224	8166,13
397,667	8650,62
398,11	9509,6
398,553	10555,82
398,996	11220,53
399,439	11693,32
399,882	12210,57
400,325	12510,16
400,768	12989,97
401,211	12840,18
401,654	13099,98
402,096	13444,04
402,539	13429,99
402,982	13359,78
403,424	13373,82
403,867	13645,32
404,309	13774,05
404,752	13327,01
405,194	13231,05
405,637	13238,07
406,079	13312,97
406,521	12989,97
406,963	13022,74
407,406	13022,74
407,848	13263,82
408,29	13390,2
408,732	13678,09
409,174	14036,19
409,616	13596,17
410,058	13408,93
410,499	13415,95
410,941	13848,95
411,383	13860,65
411,825	14286,63
412,266	14637,71
412,708	14593,24
413,15	14352,16
413,591	14534,73
414,033	14406
414,474	14843,68
414,915	14260,88
415,357	14874,1
415,798	14539,41
416,239	14888,15
416,68	14927,94
417,121	14534,73
417,563	14499,62
418,004	14714,95
418,445	14721,97
418,885	14623,67
419,326	14403,66
419,767	14677,5
420,208	14705,59
420,649	14778,14
421,089	15225,18
421,53	15236,89
421,971	15187,74
422,411	14602,6
422,852	14881,13
423,292	15133,9
423,733	14815,59
424,173	14745,38
424,613	15159,65
425,054	15190,08
425,494	14913,89
425,934	15021,56
426,374	14995,81
426,814	14651,75
427,254	14801,55
427,694	14490,26
428,134	14703,25
428,574	14738,35
429,014	14209,39
429,454	13816,18
429,893	13324,67
430,333	12540,59
430,773	12451,65
431,212	12814,43
431,652	13652,34
432,091	14558,13
432,531	14712,61
432,97	15084,75
433,41	15154,97
433,849	14941,98
434,288	15075,39
434,727	15527,11
435,167	15770,53
435,606	15871,17
436,045	16343,96
436,484	16397,79
436,923	16449,28
437,362	16594,4
437,801	16449,28
438,239	16390,77
438,678	15967,13
439,117	16081,82
439,556	16472,69
439,994	16409,5
440,433	16676,32
440,871	16982,93
441,31	17069,53
441,748	17642,96
442,187	18113,41
442,625	18363,84
443,063	18221,07
443,502	17919,14
443,94	18710,24
444,378	18778,12
444,816	18518,32
445,254	18747,69
445,692	18478,53
446,13	18588,53
446,568	18946,64
447,006	18815,57
447,444	18602,58
447,881	19887,53
448,319	19833,7
448,757	19129,2
449,194	19686,25
449,632	19957,75
450,07	20091,16
450,507	20334,57
450,944	20596,71
451,382	20898,64
451,819	20355,64
452,256	20514,8
452,694	20130,95
453,131	20439,9
453,568	20198,82
454,005	19932
454,442	20311,17
454,879	20545,22
455,316	20919,71
455,753	20606,08
456,19	20800,34
456,627	21116,31
457,063	20849,49
457,5	21177,17
457,937	21128,02
458,373	20631,82
458,81	20334,57
459,246	20931,41
459,683	20622,46
460,119	20898,64
460,556	21432,29
460,992	21530,59
461,428	21558,67
461,864	22054,87
462,301	22005,72
462,737	22192,96
463,173	22462,12
463,609	21942,52
464,045	21872,31
464,481	22211,68
464,917	22132,11
465,352	22422,33
465,788	22326,37
466,224	22473,82
466,66	22548,72
467,095	22302,96
467,531	22419,99
467,966	22387,22
468,402	22745,33
468,837	23578,56
469,273	23522,38
469,708	23356,21
470,143	23620,69
470,578	23812,61
471,014	23658,13
471,449	24201,14
471,884	24732,44
472,319	25425,24
472,754	25221,61
473,189	25453,33
473,624	26029,1
474,059	25935,48
474,493	26450,39
474,928	27372,57
475,363	27887,48
475,797	27580,87
476,232	27262,56
476,667	28479,64
477,101	28608,37
477,536	29455,64
477,97	29287,12
478,404	29778,64
478,839	30110,99
479,273	30424,62
479,707	30895,07
480,141	31630
480,575	31805,54
481,009	31976,4
481,444	32353,23
481,877	32779,2
482,311	33165,39
482,745	33577,33
483,179	33703,71
483,613	33383,06
484,047	33610,09
484,48	33460,3
484,914	33600,73
485,347	31894,48
485,781	31683,83
486,214	30878,69
486,648	30345,05
487,081	31379,56
487,515	31810,22
487,948	32762,82
488,381	32884,53
488,814	33890,96
489,247	34005,64
489,68	35063,57
490,113	35267,19
490,546	35501,25
490,979	35405,28
491,412	35075,27
491,845	35281,24
492,278	35377,2
492,711	35058,88
493,143	35330,39
493,576	36128,51
494,009	36273,62
494,441	36917,27
494,874	36374,27
495,306	37118,56
495,738	37249,63
496,171	36943,02
496,603	37270,69
497,035	37570,28
497,467	37759,86
497,9	37193,45
498,332	36842,37
498,764	37104,51
499,196	37095,15
499,628	36760,45
500,06	36996,85
500,491	36184,68
500,923	36353,2
501,355	36006,8
501,787	35721,26
502,218	36322,77
502,65	36566,19
503,081	36514,7
503,513	36903,23
503,944	36933,65
504,376	37006,21
504,807	37127,92
505,238	37635,81
505,67	38316,91
506,101	38153,07
506,532	38508,83
506,963	38204,56
507,394	38068,81
507,825	38157,75
508,256	37790,29
508,687	38141,37
509,118	38349,68
509,549	38394,15
509,979	38129,67
510,41	38731,18
510,841	38171,8
511,271	38600,11
511,702	38892,68
512,132	38593,09
512,563	38565,01
512,993	37837,1
513,424	38471,39
513,854	37411,12
514,284	37771,57
514,714	37668,58
515,145	38277,12
515,575	37663,9
516,005	36772,16
516,435	36311,07
516,865	35056,54
517,295	34583,76
517,724	34871,64
518,154	34796,74
518,584	35445,07
519,014	35407,62
519,443	36411,71
519,873	36407,03
520,303	37062,38
520,732	37376,01
521,161	37745,82
521,591	37949,45
522,02	37933,06
522,45	37684,97
522,879	37584,32
523,308	37521,13
523,737	38089,88
524,166	37919,02
524,595	38244,35
525,024	38000,94
525,453	38204,56
525,882	37397,08
526,311	36662,15
526,74	35999,78
527,169	35573,8
527,597	35957,65
528,026	36357,88
528,455	36570,87
528,883	36896,2
529,312	37572,62
529,74	37834,76
530,168	37996,26
530,597	37762,2
531,025	38457,34
531,453	38909,07
531,882	38122,65
532,31	37481,34
532,738	36882,16
533,166	36786,2
533,594	37254,31
534,022	36907,91
534,45	37373,67
534,878	37251,97
535,305	37251,97
535,733	37893,27
536,161	37654,54
536,588	37577,3
537,016	37123,24
537,444	37226,22
537,871	37326,86
538,299	37301,12
538,726	37329,2
539,153	37266,01
539,581	36540,44
540,008	36636,41
540,435	35875,73
540,862	35679,13
541,289	36240,85
541,716	36107,44
542,143	36165,96
542,57	36219,79
542,997	35896,8
543,424	36935,99
543,851	36547,47
544,277	36875,14
544,704	36659,81
545,131	36774,5
545,557	36704,28
545,984	36814,29
546,41	36458,52
546,837	36360,22
547,263	36074,68
547,69	36086,38
548,116	36180
548,542	36409,37
548,968	36678,54
549,394	36208,09
549,82	36671,51
550,246	36142,55
550,672	36285,33
551,098	36299,37
551,524	36769,82
551,95	36112,13
552,376	36194,04
552,802	36041,91
553,227	36123,83
553,653	36549,81
554,078	36474,91
554,504	36711,3
554,929	36294,69
555,355	36634,06
555,78	36238,51
556,206	35948,29
556,631	35253,15
557,056	35475,5
557,481	35545,72
557,906	35040,16
558,331	34394,17
558,756	34429,28
559,181	34410,56
559,606	33804,36
560,031	34609,5
560,456	34300,55
560,881	34288,85
561,305	34976,97
561,73	34309,91
562,155	34703,12
562,579	34717,17
563,004	34335,66
563,428	34735,89
563,853	34754,61
564,277	34501,84
564,701	34401,19
565,126	34405,88
565,55	34120,33
565,974	33507,11
566,398	33806,7
566,822	33773,93
567,246	34029,05
567,67	33731,8
568,094	33963,51
568,518	34019,69
568,941	34054,79
569,365	34216,29
569,789	34178,84
570,213	34197,57
570,636	34024,37
571,06	33558,6
571,483	34000,96
571,907	34216,29
572,33	34375,45
572,753	34630,57
573,177	34644,61
573,6	34333,32
574,023	34567,37
574,446	34291,19
574,869	34071,18
575,292	33563,28
575,715	33408,81
576,138	33624,14
576,561	33434,55
576,984	33146,67
577,407	32933,68
577,829	32669,2
578,252	32870,48
578,675	31929,59
579,097	31976,4
579,52	31941,29
579,942	32224,5
580,364	32175,34
580,787	31695,53
581,209	32252,58
581,631	31931,93
582,054	31590,21
582,476	31641,7
582,898	31952,99
583,32	31632,34
583,742	31585,53
584,164	31676,81
584,586	31548,08
585,008	31211,04
585,429	31112,74
585,851	30480,8
586,273	31105,72
586,694	30733,57
587,116	30972,31
587,538	30239,72
587,959	30293,55
588,38	29495,43
588,802	29137,33
589,223	28517,09
589,644	28524,11
590,066	28758,16
590,487	28783,91
590,908	29205,2
591,329	29362,02
591,75	29408,83
592,171	29642,88
592,592	29734,17
593,013	29682,67
593,434	29968,22
593,854	30431,65
594,275	30422,28
594,696	30663,36
595,116	30366,11
595,537	30602,5
595,957	30913,8
596,378	30932,52
596,798	30792,09
597,218	31049,55
597,639	31215,72
598,059	31108,06
598,479	31094,02
598,899	31051,89
599,319	31175,94
599,739	31007,42
600,159	30733,57
600,579	30913,8
600,999	30457,39
601,419	30298,23
601,839	30536,97
602,259	30260,79
602,678	30022,05
603,098	30698,47
603,517	30188,23
603,937	30115,67
604,356	30441,01
604,776	29741,19
605,195	29666,29
605,614	29921,41
606,034	29549,26
606,453	28929,02
606,872	29160,73
607,291	28790,93
607,71	28903,28
608,129	28273,67
608,548	27779,82
608,967	27756,41
609,386	27398,31
609,805	27136,17
610,223	27241,5
610,642	26888,07
611,061	26721,9
611,479	26134,42
611,898	26757
612,316	26515,93
612,735	25748,23
613,153	25488,43
613,571	25820,79
613,99	25612,48
614,408	25619,5
614,826	25483,75
615,244	25296,51
615,662	24943,09
616,08	24334,55
616,498	24514,77
616,916	24357,96
617,334	24559,24
617,752	24467,96
618,169	24575,62
618,587	24313,48
619,005	24484,34
619,422	24430,51
619,84	24219,86
620,257	24662,22
620,675	24245,61
621,092	24046,66
621,509	24177,73
621,927	23960,06
622,344	23761,12
622,761	23571,54
623,178	23321,1
623,595	23428,76
624,012	23222,8
624,429	22911,5
624,846	22714,9
625,263	22878,74
625,68	22525,32
626,097	22796,82
626,513	22361,48
626,93	22380,2
627,346	22443,4
627,763	22345,09
628,179	22115,72
628,596	21766,98
629,012	22249,13
629,429	21809,11
629,845	22195,3
630,261	21579,74
630,677	21853,58
631,093	21532,93
631,509	21682,72
631,925	21221,64
632,341	21511,86
632,757	21504,84
633,173	21502,5
633,589	21493,14
634,005	21282,49
634,42	21465,05
634,836	21333,98
635,252	21436,97
635,667	21249,72
636,083	21158,44
636,498	21202,91
636,913	21446,33
637,329	21235,68
637,744	21362,07
638,159	21577,4
638,574	21160,78
638,99	20973,54
639,405	21252,06
639,82	20805,02
640,235	20814,38
640,65	20807,36
641,064	20465,64
641,479	20496,07
641,894	20695,02
642,309	20311,17
642,723	20648,21
643,138	20472,67
643,552	20442,24
643,967	20339,26
644,381	20362,66
644,796	20320,53
645,21	20402,45
645,624	20123,93
646,038	20058,39
646,453	19836,04
646,867	19852,42
647,281	19665,18
647,695	19674,54
648,109	19398,36
648,523	19503,68
648,936	19515,39
649,35	19253,25
649,764	19351,55
650,178	19302,4
650,591	19449,85
651,005	19271,97
651,418	19201,75
651,832	19325,8
652,245	19302,4
652,659	19103,45
653,072	19365,59
653,485	19316,44
653,898	19271,97
654,312	18792,16
654,725	18743,01
655,138	18288,95
655,551	17563,38
655,964	17184,21
656,377	17025,06
656,789	17177,19
657,202	17170,17
657,615	17481,46
658,028	17923,82
658,44	17984,68
658,853	18188,3
659,265	17907,44
659,678	18111,07
660,09	18237,45
660,503	18370,86
660,915	18249,16
661,327	18104,04
661,739	18462,15
662,152	18249,16
662,564	18302,99
662,976	18719,6
663,388	18071,28
663,8	18029,15
664,211	17951,91
664,623	18207,03
665,035	17956,59
665,447	17717,86
665,858	18108,72
666,27	17759,99
666,682	17752,96
667,093	17326,99
667,505	17371,46
667,916	17469,76
668,327	17130,38
668,739	17020,38
669,15	17116,34
669,561	17104,63
669,972	16901,01
670,383	16760,58
670,794	16924,41
671,205	16388,43
671,616	16695,04
672,027	16608,44
672,438	16416,52
672,849	16479,71
673,259	16285,45
673,67	16383,75
674,08	16423,54
674,491	16266,72
674,901	16065,44
675,312	16042,03
675,722	16020,97
676,133	15775,21
676,543	15494,35
676,953	15707,34
677,363	16032,67
677,773	15700,31
678,183	15819,68
678,593	15506,05
679,003	15454,56
679,413	15564,56
679,823	15534,14
680,233	15262,63
680,643	15227,53
681,052	14972,41
681,462	15021,56
681,872	14974,75
682,281	15063,69
