Data from FLMS055071__5__14-16-03-468.txt Node

Date: Wed Apr 28 14:16:03 CEST 2021
User: thoma
Spectrometer: FLMS05507
Trigger mode: 0
Integration Time (sec): 1,000000E-3
Scans to average: 1
Electric dark correction enabled: false
Nonlinearity correction enabled: false
Boxcar width: 0
XAxis mode: Wavelengths
Number of Pixels in Spectrum: 2048
>>>>>Begin Spectral Data<<<<<
188,96	2586,29
189,424	2586,29
189,887	2586,29
190,351	2649,49
190,815	2602,68
191,279	2724,38
191,742	2684,59
192,206	2633,1
192,669	2605,02
193,133	2619,06
193,596	2628,42
194,06	2661,19
194,523	2724,38
194,987	2715,02
195,45	2698,64
195,913	2764,17
196,376	2766,51
196,84	2736,09
197,303	2796,94
197,766	2855,45
198,229	2808,64
198,692	2883,54
199,155	2846,09
199,618	2871,84
200,081	2984,18
200,543	2853,11
201,006	2951,42
201,469	2970,14
201,932	2951,42
202,394	3040,36
202,857	2946,73
203,32	3056,74
203,782	3023,97
204,245	3019,29
204,707	3007,59
205,169	3045,04
205,632	3009,93
206,094	3030,99
206,556	3061,42
207,019	3075,46
207,481	3033,33
207,943	3052,06
208,405	3096,53
208,867	2998,23
209,329	3084,83
209,791	3016,95
210,253	3082,49
210,715	3026,31
211,177	2939,71
211,639	3005,25
212,1	3126,96
212,562	3033,33
213,024	3023,97
213,485	3073,12
213,947	3054,4
214,408	3021,63
214,87	3063,76
215,331	3059,08
215,793	2972,48
216,254	3061,42
216,715	3040,36
217,177	3056,74
217,638	3035,67
218,099	3056,74
218,56	3049,72
219,021	3059,08
219,482	2977,16
219,944	3098,87
220,404	3047,38
220,865	3063,76
221,326	3002,91
221,787	3059,08
222,248	3059,08
222,709	3038,02
223,169	2991,2
223,63	3040,36
224,091	3040,36
224,551	2979,5
225,012	2981,84
225,472	2986,52
225,933	2946,73
226,393	3030,99
226,854	2991,2
227,314	2981,84
227,774	2984,18
228,234	3068,44
228,695	3040,36
229,155	3033,33
229,615	3005,25
230,075	3045,04
230,535	3059,08
230,995	2974,82
231,455	3073,12
231,915	3077,8
232,375	3052,06
232,834	3068,44
233,294	3068,44
233,754	3122,27
234,214	3030,99
234,673	3035,67
235,133	3059,08
235,592	3007,59
236,052	3033,33
236,511	2946,73
236,971	3005,25
237,43	3021,63
237,889	3131,64
238,349	3049,72
238,808	3077,8
239,267	3007,59
239,726	2960,78
240,185	3061,42
240,644	3045,04
241,103	3119,93
241,562	3038,02
242,021	3028,65
242,48	3054,4
242,939	3005,25
243,398	2991,2
243,857	3023,97
244,315	3009,93
244,774	3033,33
245,233	3040,36
245,691	3033,33
246,15	3059,08
246,608	2991,2
247,067	3012,27
247,525	3063,76
247,983	3040,36
248,442	2998,23
248,9	3000,57
249,358	2951,42
249,816	2995,89
250,274	2988,86
250,733	3047,38
251,191	2991,2
251,649	2949,07
252,107	2951,42
252,564	3038,02
253,022	2986,52
253,48	2991,2
253,938	3012,27
254,396	3014,61
254,853	3080,14
255,311	3007,59
255,769	3080,14
256,226	3073,12
256,684	2993,55
257,141	3016,95
257,599	3014,61
258,056	3021,63
258,513	3023,97
258,971	3054,4
259,428	3023,97
259,885	3049,72
260,342	2988,86
260,799	3054,4
261,256	3033,33
261,714	3059,08
262,171	3054,4
262,627	3028,65
263,084	3159,72
263,541	3035,67
263,998	3049,72
264,455	3019,29
264,912	2986,52
265,368	3070,78
265,825	3084,83
266,281	2974,82
266,738	3108,23
267,194	3002,91
267,651	3002,91
268,107	3056,74
268,564	3040,36
269,02	3077,8
269,476	3035,67
269,933	3110,57
270,389	3075,46
270,845	3068,44
271,301	2979,5
271,757	3089,51
272,213	3122,27
272,669	3033,33
273,125	3012,27
273,581	3094,19
274,037	3087,17
274,492	3038,02
274,948	3068,44
275,404	3054,4
275,86	3066,1
276,315	2942,05
276,771	3056,74
277,226	3087,17
277,682	3038,02
278,137	3080,14
278,593	3094,19
279,048	3038,02
279,503	2970,14
279,958	3070,78
280,414	2974,82
280,869	3033,33
281,324	2972,48
281,779	3023,97
282,234	3096,53
282,689	3105,89
283,144	3026,31
283,599	3019,29
284,054	3026,31
284,508	3049,72
284,963	3087,17
285,418	3089,51
285,873	3038,02
286,327	3070,78
286,782	3082,49
287,236	3021,63
287,691	3101,21
288,145	3023,97
288,6	3040,36
289,054	2981,84
289,508	3040,36
289,963	3080,14
290,417	3030,99
290,871	3077,8
291,325	3145,68
291,779	3091,85
292,233	3073,12
292,687	2984,18
293,141	3030,99
293,595	3012,27
294,049	3014,61
294,503	3061,42
294,957	2984,18
295,41	3040,36
295,864	2974,82
296,318	3016,95
296,771	3059,08
297,225	3030,99
297,678	3030,99
298,132	3152,7
298,585	3066,1
299,039	2979,5
299,492	3073,12
299,945	3045,04
300,398	3105,89
300,852	3000,57
301,305	3094,19
301,758	3033,33
302,211	3033,33
302,664	2988,86
303,117	3005,25
303,57	3080,14
304,023	3091,85
304,476	3045,04
304,928	3056,74
305,381	3091,85
305,834	3082,49
306,286	3033,33
306,739	3047,38
307,192	3094,19
307,644	3136,32
308,097	3131,64
308,549	3133,98
309,001	3136,32
309,454	3108,23
309,906	3119,93
310,358	3164,4
310,81	3119,93
311,263	3157,38
311,715	3157,38
312,167	3286,11
312,619	3194,83
313,071	3234,62
313,523	3281,43
313,975	3215,9
314,426	3265,05
314,878	3276,75
315,33	3281,43
315,782	3272,07
316,233	3323,56
316,685	3222,92
317,136	3316,54
317,588	3431,23
318,039	3403,14
318,491	3405,48
318,942	3375,05
319,393	3482,72
319,845	3445,27
320,296	3496,76
320,747	3461,65
321,198	3534,21
321,649	3517,83
322,101	3499,1
322,552	3655,92
323,003	3503,78
323,453	3576,34
323,904	3559,95
324,355	3630,17
324,806	3698,05
325,257	3749,54
325,707	3817,41
326,158	3889,97
326,609	3915,72
327,059	3906,35
327,51	3922,74
327,96	3934,44
328,411	3894,65
328,861	3871,25
329,311	3922,74
329,762	3999,98
330,212	3974,23
330,662	3999,98
331,112	3969,55
331,562	3901,67
332,012	3992,95
332,462	3908,69
332,912	3941,46
333,362	3990,61
333,812	3971,89
334,262	3847,84
334,712	4021,04
335,161	3925,08
335,611	4039,76
336,061	3969,55
336,51	3878,27
336,96	3904,01
337,409	3941,46
337,859	3964,87
338,308	3957,85
338,758	4025,72
339,207	3985,93
339,656	4088,92
340,105	4095,94
340,555	4145,09
341,004	4107,64
341,453	4070,19
341,902	4149,77
342,351	4138,07
342,8	4215,3
343,249	4280,84
343,698	4121,68
344,146	4152,11
344,595	4112,32
345,044	4077,21
345,493	4100,62
345,941	4138,07
346,39	4339,35
346,838	4212,96
347,287	4217,65
347,735	4346,37
348,184	4205,94
348,632	4283,18
349,08	4219,99
349,529	4292,54
349,977	4278,5
350,425	4273,82
350,873	4358,08
351,321	4425,95
351,769	4437,66
352,217	4402,55
352,665	4418,93
353,113	4432,97
353,561	4482,13
354,009	4580,43
354,456	4554,68
354,904	4580,43
355,352	4512,55
355,799	4547,66
356,247	4498,51
356,694	4554,68
357,142	4418,93
357,589	4355,74
358,037	4294,88
358,484	4255,09
358,931	4306,59
359,379	4318,29
359,826	4531,28
360,273	4585,11
360,72	4657,67
361,167	4580,43
361,614	4484,47
362,061	4627,24
362,508	4496,17
362,955	4578,09
363,402	4699,8
363,848	4865,97
364,295	4835,55
364,742	4793,42
365,188	4950,23
365,635	4978,32
366,082	5170,24
366,528	5205,35
366,975	5291,95
367,421	5142,16
367,867	5287,27
368,314	5233,44
368,76	5277,91
369,206	5252,16
369,652	5308,34
370,098	5338,76
370,545	5376,21
370,991	5399,62
371,437	5291,95
371,882	5179,61
372,328	5191,31
372,774	5163,22
373,22	5025,13
373,666	5018,11
374,111	5008,75
374,557	4901,08
375,003	4985,34
375,448	5100,03
375,894	5203,01
376,339	5188,97
376,785	5364,51
377,23	5490,9
377,675	5591,54
378,121	5727,29
378,566	5682,82
379,011	5797,51
379,456	5547,07
379,901	5542,39
380,346	5540,05
380,791	5535,37
381,236	5547,07
381,681	5425,36
382,126	5193,65
382,571	5151,52
383,016	5036,83
383,461	4887,04
383,905	4858,95
384,35	4997,04
384,794	5177,26
385,239	5123,43
385,683	5334,08
386,128	5273,23
386,572	5301,31
387,017	5296,63
387,461	5313,02
387,905	5385,57
388,349	5448,77
388,794	5481,53
389,238	5493,24
389,682	5575,16
390,126	5757,72
390,57	5975,39
391,014	6150,93
391,457	5989,43
391,901	6001,13
392,345	5937,94
392,789	5551,75
393,233	5170,24
393,676	5118,75
394,12	5104,71
394,563	5397,28
395,007	5661,76
395,45	5790,49
395,894	5736,65
396,337	5650,05
396,78	5603,24
397,224	5451,11
397,667	5565,79
398,11	5975,39
398,553	6417,75
398,996	6600,31
399,439	6881,17
399,882	7059,06
400,325	7227,57
400,768	7555,25
401,211	7463,97
401,654	7646,53
402,096	7655,89
402,539	7707,38
402,982	7618,44
403,424	7648,87
403,867	7674,62
404,309	7679,3
404,752	7531,84
405,194	7538,87
405,637	7449,93
406,079	7468,65
406,521	7522,48
406,963	7489,71
407,406	7428,86
407,848	7623,12
408,29	7782,28
408,732	7854,84
409,174	7852,5
409,616	7911,01
410,058	7578,65
410,499	7578,65
410,941	7730,79
411,383	7875,9
411,825	8006,97
412,266	8196,56
412,708	8121,66
413,15	8212,94
413,591	8070,17
414,033	8294,86
414,474	8276,13
414,915	8051,44
415,357	8351,03
415,798	8208,26
416,239	8241,03
416,68	8259,75
417,121	8049,1
417,563	8166,13
418,004	8217,62
418,445	8182,51
418,885	8257,41
419,326	8170,81
419,767	8248,05
420,208	8208,26
420,649	8287,84
421,089	8578,06
421,53	8372,1
421,971	8479,76
422,411	8353,37
422,852	8308,9
423,292	8304,22
423,733	8351,03
424,173	8320,6
424,613	8524,23
425,054	8477,42
425,494	8306,56
425,934	8414,23
426,374	8442,31
426,814	8299,54
427,254	8093,57
427,694	7967,18
428,134	8063,15
428,574	8198,9
429,014	7981,23
429,454	7793,98
429,893	7576,31
430,333	7386,73
430,773	7440,56
431,212	7433,54
431,652	7695,68
432,091	8009,31
432,531	8222,3
432,97	8315,92
433,41	8395,5
433,849	8404,86
434,288	8219,96
434,727	8566,36
435,167	8697,43
435,606	8732,54
436,045	8835,52
436,484	9046,17
436,923	9050,85
437,362	8943,19
437,801	8915,1
438,239	8966,59
438,678	8865,95
439,117	8924,46
439,556	8847,23
439,994	8894,04
440,433	9050,85
440,871	9050,85
441,31	9460,45
441,748	9312,99
442,187	9659,39
442,625	9818,55
443,063	9762,37
443,502	9661,73
443,94	9968,34
444,378	9982,38
444,816	10019,83
445,254	9888,76
445,692	10066,64
446,13	9884,08
446,568	9984,73
447,006	9989,41
447,444	9816,21
447,881	10200,05
448,319	10258,57
448,757	10050,26
449,194	10328,78
449,632	10509,01
450,07	10494,96
450,507	10665,82
450,944	10841,36
451,382	10958,39
451,819	10743,06
452,256	10867,11
452,694	10415,38
453,131	10647,1
453,568	10761,78
454,005	10420,06
454,442	10548,79
454,879	10644,76
455,316	10733,7
455,753	10597,95
456,19	10600,29
456,627	10895,19
457,063	10885,83
457,5	10855,4
457,937	10909,24
458,373	10855,4
458,81	10581,56
459,246	10913,92
459,683	10710,29
460,119	11126,91
460,556	11009,88
460,992	10944,34
461,428	11358,62
461,864	11255,64
462,301	11257,98
462,737	11508,41
463,173	11587,99
463,609	11318,83
464,045	11328,19
464,481	11393,73
464,917	11506,07
465,352	11274,36
465,788	11194,78
466,224	11494,37
466,66	11461,6
467,095	11564,59
467,531	11459,26
467,966	11410,11
468,402	11770,55
468,837	12002,27
469,273	12180,15
469,708	11910,99
470,143	12079,5
470,578	12119,29
471,014	12444,63
471,449	12318,24
471,884	12526,55
472,319	12784,01
472,754	12957,21
473,189	12826,14
473,624	12945,5
474,059	13081,25
474,493	13242,75
474,928	13750,65
475,363	13736,6
475,797	13774,05
476,232	13720,22
476,667	14174,28
477,101	14026,83
477,536	14661,12
477,97	14347,48
478,404	14609,62
478,839	14925,6
479,273	15077,73
479,707	15435,83
480,141	15213,48
480,575	15639,46
481,009	15681,59
481,444	15737,76
481,877	16152,04
482,311	15927,35
482,745	16248
483,179	16212,89
483,613	16072,46
484,047	16177,78
484,48	16313,53
484,914	16051,39
485,347	15889,9
485,781	15566,9
486,214	15201,78
486,648	15115,18
487,081	15157,31
487,515	15616,05
487,948	15927,35
488,381	16212,89
488,814	16397,79
489,247	16409,5
489,68	16793,34
490,113	17249,75
490,546	17341,03
490,979	17071,87
491,412	17266,13
491,845	17167,83
492,278	17198,26
492,711	17151,45
493,143	17254,43
493,576	17572,74
494,009	17570,4
494,441	17635,94
494,874	17429,97
495,306	18160,22
495,738	18010,42
496,171	17743,6
496,603	18333,42
497,035	18239,79
497,467	18249,16
497,9	17790,41
498,332	17928,5
498,764	17806,8
499,196	18073,62
499,628	18073,62
500,06	18059,57
500,491	17701,47
500,923	17827,86
501,355	17507,21
501,787	17394,86
502,218	17579,76
502,65	17612,53
503,081	17371,46
503,513	17958,93
503,944	17912,12
504,376	17659,34
504,807	17998,72
505,238	18073,62
505,67	18443,42
506,101	18443,42
506,532	18696,2
506,963	18541,72
507,394	18541,72
507,825	18281,92
508,256	18272,56
508,687	18333,42
509,118	18490,23
509,549	18513,64
509,979	18553,43
510,41	18530,02
510,841	18635,35
511,271	18717,26
511,702	18696,2
512,132	18796,84
512,563	18761,73
512,993	18340,44
513,424	18738,33
513,854	18370,86
514,284	18417,68
514,714	18398,95
515,145	18637,69
515,575	18274,9
516,005	17872,33
516,435	17619,55
516,865	17142,08
517,295	16723,13
517,724	16802,71
518,154	16816,75
518,584	17041,44
519,014	17121,02
519,443	17694,45
519,873	17645,3
520,303	17689,77
520,732	17984,68
521,161	18075,96
521,591	18188,3
522,02	18300,65
522,45	18345,12
522,879	18188,3
523,308	18422,36
523,737	18010,42
524,166	18389,59
524,595	18293,63
525,024	18263,2
525,453	18394,27
525,882	18127,45
526,311	17493,16
526,74	17542,32
527,169	17406,56
527,597	17589,13
528,026	17539,97
528,455	17802,11
528,883	17682,75
529,312	18209,37
529,74	18085,32
530,168	18345,12
530,597	18307,67
531,025	18515,98
531,453	18370,86
531,882	18216,39
532,31	18111,07
532,738	17699,13
533,166	17935,53
533,594	17872,33
534,022	17893,4
534,45	18082,98
534,878	18340,44
535,305	18384,91
535,733	18338,1
536,161	18195,32
536,588	18167,24
537,016	18169,58
537,444	18029,15
537,871	17949,57
538,299	18139,15
538,726	17919,14
539,153	18141,49
539,581	17355,07
540,008	17376,14
540,435	17259,11
540,862	17303,58
541,289	17252,09
541,716	17261,45
542,143	17266,13
542,57	17465,08
542,997	17198,26
543,424	17855,95
543,851	17579,76
544,277	17839,56
544,704	17872,33
545,131	17635,94
545,557	17937,87
545,984	17635,94
546,41	17231,02
546,837	17635,94
547,263	17565,72
547,69	17785,73
548,116	17490,82
548,542	17638,28
548,968	17785,73
549,394	17418,27
549,82	17598,49
550,246	17741,26
550,672	17462,74
551,098	17607,85
551,524	17577,42
551,95	17598,49
552,376	17425,29
552,802	17474,44
553,227	17429,97
553,653	17619,55
554,078	17373,8
554,504	17858,29
554,929	17778,71
555,355	17696,79
555,78	17429,97
556,206	17453,37
556,631	17207,62
557,056	17392,52
557,481	17282,52
557,906	17158,47
558,331	16950,16
558,756	16666,95
559,181	16882,28
559,606	16816,75
560,031	16545,25
560,456	16678,66
560,881	16608,44
561,305	16954,84
561,73	16496,1
562,155	16744,19
562,579	16716,11
563,004	16568,65
563,428	17167,83
563,853	16952,5
564,277	16613,12
564,701	16739,51
565,126	16671,64
565,55	16446,94
565,974	16362,69
566,398	16350,98
566,822	16671,64
567,246	16601,42
567,67	16709,08
568,094	16531,2
568,518	16477,37
568,941	16620,14
569,365	16528,86
569,789	16704,4
570,213	16840,15
570,636	16475,03
571,06	16486,73
571,483	16355,66
571,907	16411,84
572,33	16751,21
572,753	16727,81
573,177	16774,62
573,6	17008,67
574,023	16367,37
574,446	16772,28
574,869	16465,67
575,292	16432,9
575,715	16334,6
576,138	16210,55
576,561	16018,63
576,984	16137,99
577,407	15957,77
577,829	16100,55
578,252	15672,23
578,675	15669,89
579,097	15782,23
579,52	15681,59
579,942	15726,06
580,364	15688,61
580,787	15477,96
581,209	15506,05
581,631	15566,9
582,054	15571,58
582,476	15534,14
582,898	15494,35
583,32	15475,62
583,742	15398,38
584,164	15639,46
584,586	15405,41
585,008	15473,28
585,429	15304,76
585,851	14892,83
586,273	15311,78
586,694	15227,53
587,116	15075,39
587,538	14934,96
587,959	14874,1
588,38	14759,42
588,802	14478,55
589,223	14272,59
589,644	14235,14
590,066	14228,12
590,487	14127,47
590,908	14431,74
591,329	14647,07
591,75	14628,35
592,171	14541,75
592,592	14855,38
593,013	14913,89
593,434	15016,88
593,854	15073,05
594,275	15293,06
594,696	15108,16
595,116	15183,06
595,537	15117,52
595,957	15164,33
596,378	15428,81
596,798	15169,01
597,218	15220,5
597,639	15328,17
598,059	15187,74
598,479	15051,99
598,899	15049,64
599,319	15286,04
599,739	15157,31
600,159	15199,44
600,579	15220,5
600,999	14941,98
601,419	14831,97
601,839	15014,54
602,259	14839
602,678	14855,38
603,098	14663,46
603,517	14764,1
603,937	14420,04
604,356	14728,99
604,776	14537,07
605,195	14544,09
605,614	14635,37
606,034	14726,65
606,453	14618,99
606,872	14621,33
607,291	14216,41
607,71	14038,53
608,129	14036,19
608,548	13706,18
608,967	13951,93
609,386	13607,87
609,805	13514,25
610,223	13561,06
610,642	13577,45
611,061	13205,3
611,479	13345,73
611,898	13378,5
612,316	13060,19
612,735	13018,06
613,153	13050,83
613,571	12999,34
613,99	12697,41
614,408	12884,65
614,826	12999,34
615,244	12622,51
615,662	12615,49
616,08	12489,1
616,498	12320,58
616,916	12484,42
617,334	12376,75
617,752	12498,46
618,169	12622,51
618,587	12416,54
619,005	12479,74
619,422	12416,54
619,84	12547,61
620,257	12531,23
620,675	12549,95
621,092	12421,22
621,509	12386,11
621,927	12156,74
622,344	12241
622,761	12273,77
623,178	11976,52
623,595	11943,75
624,012	11754,17
624,429	11800,98
624,846	11676,93
625,263	11768,21
625,68	11756,51
626,097	11613,74
626,513	11473,31
626,93	11613,74
627,346	11405,43
627,763	11391,39
628,179	11435,86
628,596	11351,6
629,012	11389,05
629,429	11365,64
629,845	11358,62
630,261	11122,23
630,677	11140,95
631,093	11229,89
631,509	11297,77
631,925	11192,44
632,341	11152,65
632,757	11279,04
633,173	11187,76
633,589	11124,57
634,005	11056,69
634,42	11140,95
634,836	11063,71
635,252	11068,39
635,667	10897,53
636,083	11073,07
636,498	11133,93
636,913	11016,9
637,329	11070,73
637,744	11236,91
638,159	11185,42
638,574	11140,95
638,99	11133,93
639,405	10916,26
639,82	10995,84
640,235	10590,92
640,65	10712,63
641,064	10719,65
641,479	10693,91
641,894	10593,26
642,309	10766,46
642,723	10705,61
643,138	10600,29
643,552	10714,97
643,967	10691,57
644,381	10558,16
644,796	10565,18
645,21	10537,09
645,624	10621,35
646,038	10544,11
646,453	10370,91
646,867	10368,57
647,281	10452,83
647,695	10354,53
648,109	10115,8
648,523	10338,15
648,936	10129,84
649,35	10200,05
649,764	10202,4
650,178	9933,23
650,591	10115,8
651,005	10216,44
651,418	10050,26
651,832	10178,99
652,245	10047,92
652,659	9933,23
653,072	10092,39
653,485	10026,85
653,898	10022,17
654,312	10026,85
654,725	9818,55
655,138	9607,9
655,551	9621,94
655,964	9188,94
656,377	9233,41
656,789	9280,22
657,202	9160,86
657,615	9261,5
658,028	9507,26
658,44	9638,33
658,853	9474,49
659,265	9610,24
659,678	9722,59
660,09	9708,54
660,503	9764,72
660,915	9738,97
661,327	9638,33
661,739	9577,47
662,152	9584,49
662,564	9444,06
662,976	9652,37
663,388	9675,77
663,8	9710,88
664,211	9579,81
664,623	9401,93
665,035	9509,6
665,447	9441,72
665,858	9549,39
666,27	9357,46
666,682	9385,55
667,093	9355,12
667,505	9263,84
667,916	9210,01
668,327	9273,2
668,739	9282,56
669,15	9273,2
669,561	9193,62
669,972	9055,53
670,383	9202,99
670,794	9198,31
671,205	8978,3
671,616	9125,75
672,027	8954,89
672,438	8751,26
672,849	9062,55
673,259	8910,42
673,67	8830,84
674,08	9006,38
674,491	8858,93
674,901	8779,35
675,312	8788,71
675,722	8795,73
676,133	8751,26
676,543	8720,84
676,953	8638,92
677,363	8662,32
677,773	8617,85
678,183	8507,85
678,593	8528,91
679,003	8503,17
679,413	8566,36
679,823	8547,64
680,233	8386,14
680,643	8344,01
681,052	8327,63
681,462	8484,44
681,872	8390,82
682,281	8404,86
682,691	8107,62
683,1	8037,4
683,509	8191,88
683,919	8191,88
684,328	8175,49
684,737	8016,33
685,146	8168,47
685,555	8002,29
685,964	7693,34
